# XDI/1.0 Athena/0.9.26
# Element.edge:                  K
# Element.symbol:                Co
# Column.1:                      k inverse Angstrom
# Column.2:                      chi
# Column.3:                      chik
# Column.4:                      chik2
# Column.5:                      chik3
# Column.6:                      window
# Column.7:                      energy
# Athena.e0:                     7722
# Athena.eshift:                 0
# Athena.rbkg:                   1.0
# Athena.importance:             1
# Athena.standard:               None
# Athena.bkg_kweight:            2
# Athena.edge_step:              4.0523911
# Athena.fixed_step:             no
# Athena.pre_edge_range:         -150.000 -30.000
# Athena.pre_edge_line:          8.824765 - 0.00125683 * E
# Athena.normalization_range:    150.000 1121.435
# Athena.post_edge_polynomial:   82.710757 - 0.0176741 * E + 9.54905612e-007 * E^2 + 0 * E^3
# Athena.spline_range_energy:    0.000 1221.439
# Athena.clamps:                 0 24
# Athena.spline_range_k:         0.000 17.905
# Athena.kweight:                2
# Athena.window:                 hanning
# Athena.phase_correction:       no
# Athena.k_range:                3.000 15.905
# Athena.dk:                     1
# Athena.r_range:                1 3
# Athena.dr:                     0.0
# Athena.window:                 hanning
# Athena.plot_multiplier:        1
# Athena.y_offset:               0
# ///
#------------------------
#  k chi chik chik2 chik3 win energy
  0.0000000       0.36350362        0.0000000        0.0000000        0.0000000        0.0000000        7722.0000
  0.50000000E-01   0.34255058       0.17127529E-01   0.85637645E-03   0.42818823E-04    0.0000000        7722.0095
  0.10000000       0.32159754       0.32159754E-01   0.32159754E-02   0.32159754E-03    0.0000000        7722.0381
  0.15000000       0.30064451       0.45096676E-01   0.67645014E-02   0.10146752E-02    0.0000000        7722.0857
  0.20000000       0.27969147       0.55938294E-01   0.11187659E-01   0.22375318E-02    0.0000000        7722.1524
  0.25000000       0.25873843       0.64684609E-01   0.16171152E-01   0.40427880E-02    0.0000000        7722.2381
  0.30000000       0.23778540       0.71335619E-01   0.21400686E-01   0.64202057E-02    0.0000000        7722.3429
  0.35000000       0.21683236       0.75891326E-01   0.26561964E-01   0.92966875E-02    0.0000000        7722.4667
  0.40000000       0.19830341       0.79321364E-01   0.31728546E-01   0.12691418E-01    0.0000000        7722.6096
  0.45000000       0.18056215       0.81252968E-01   0.36563836E-01   0.16453726E-01    0.0000000        7722.7715
  0.50000000       0.16282089       0.81410446E-01   0.40705223E-01   0.20352611E-01    0.0000000        7722.9525
  0.55000000       0.16524624       0.90885433E-01   0.49986988E-01   0.27492844E-01    0.0000000        7723.1525
  0.60000000       0.17426293       0.10455776       0.62734654E-01   0.37640792E-01    0.0000000        7723.3716
  0.65000000       0.17338748       0.11270186       0.73256209E-01   0.47616536E-01    0.0000000        7723.6097
  0.70000000       0.16046345       0.11232442       0.78627093E-01   0.55038965E-01    0.0000000        7723.8669
  0.75000000       0.15090114       0.11317585       0.84881891E-01   0.63661418E-01    0.0000000        7724.1431
  0.80000000       0.14069574       0.11255659       0.90045271E-01   0.72036217E-01    0.0000000        7724.4384
  0.85000000       0.99706496E-01   0.84750522E-01   0.72037944E-01   0.61232252E-01    0.0000000        7724.7527
  0.90000000       0.11098250       0.99884251E-01   0.89895826E-01   0.80906244E-01    0.0000000        7725.0861
  0.95000000       0.20785171       0.19745913       0.18758617       0.17820686        0.0000000        7725.4385
  1.0000000       0.14644075       0.14644075       0.14644075       0.14644075        0.0000000        7725.8100
  1.0500000       0.78066185E-01   0.81969495E-01   0.86067969E-01   0.90371368E-01    0.0000000        7726.2005
  1.1000000       0.69204829E-01   0.76125312E-01   0.83737844E-01   0.92111628E-01    0.0000000        7726.6101
  1.1500000       0.88357442E-01   0.10161106       0.11685272       0.13438062        0.0000000        7727.0387
  1.2000000       0.15753046       0.18903655       0.22684386       0.27221263        0.0000000        7727.4864
  1.2500000       0.15002845       0.18753556       0.23441945       0.29302431        0.0000000        7727.9531
  1.3000000       0.69757457E-01   0.90684694E-01   0.11789010       0.15325713        0.0000000        7728.4389
  1.3500000       0.79312070E-02   0.10707129E-01   0.14454625E-01   0.19513743E-01    0.0000000        7728.9437
  1.4000000       0.99140483E-01   0.13879668       0.19431535       0.27204148        0.0000000        7729.4676
  1.4500000       0.82658762E-02   0.11985520E-01   0.17379005E-01   0.25199557E-01    0.0000000        7730.0105
  1.5000000       0.51170289E-02   0.76755434E-02   0.11513315E-01   0.17269973E-01    0.0000000        7730.5725
  1.5500000       0.26768379E-02   0.41490988E-02   0.64311032E-02   0.99682099E-02    0.0000000        7731.1535
  1.6000000      -0.18358503E-01  -0.29373605E-01  -0.46997767E-01  -0.75196428E-01    0.0000000        7731.7536
  1.6500000      -0.79968584E-01  -0.13194816      -0.21771447      -0.35922887        0.0000000        7732.3727
  1.7000000       0.34257145E-01   0.58237146E-01   0.99003148E-01   0.16830535        0.0000000        7733.0109
  1.7500000      -0.30818500E-01  -0.53932376E-01  -0.94381657E-01  -0.16516790        0.0000000        7733.6681
  1.8000000      -0.46594829E-01  -0.83870693E-01  -0.15096725      -0.27174105        0.0000000        7734.3443
  1.8500000      -0.14806409E-02  -0.27391857E-02  -0.50674936E-02  -0.93748632E-02    0.0000000        7735.0397
  1.9000000      -0.51844162E-01  -0.98503907E-01  -0.18715742      -0.35559911        0.0000000        7735.7540
  1.9500000      -0.66758700E-01  -0.13017946      -0.25384996      -0.49500741        0.0000000        7736.4875
  2.0000000      -0.60036988E-01  -0.12007398      -0.24014795      -0.48029590        0.0000000        7737.2399
  2.0500000      -0.68225863E-01  -0.13986302      -0.28671919      -0.58777434        0.0000000        7738.0115
  2.1000000      -0.70537365E-01  -0.14812847      -0.31106978      -0.65324654        0.0000000        7738.8020
  2.1500000      -0.60598308E-01  -0.13028636      -0.28011568      -0.60224871        0.0000000        7739.6117
  2.2000000      -0.48713458E-01  -0.10716961      -0.23577314      -0.51870090        0.0000000        7740.4403
  2.2500000      -0.53671231E-01  -0.12076027      -0.27171061      -0.61134887        0.0000000        7741.2880
  2.3000000      -0.10114860      -0.23264178      -0.53507610       -1.2306750        0.0000000        7742.1548
  2.3500000      -0.54685825E-01  -0.12851169      -0.30200247      -0.70970581        0.0000000        7743.0406
  2.4000000      -0.25232227E-01  -0.60557344E-01  -0.14533763      -0.34881030        0.0000000        7743.9455
  2.4500000      -0.42819060E-01  -0.10490670      -0.25702141      -0.62970245        0.0000000        7744.8694
  2.5000000       0.24701976E-01   0.61754940E-01   0.15438735       0.38596837        0.0000000        7745.8124
  2.5500000      -0.25388572E-01  -0.64740859E-01  -0.16508919      -0.42097743       0.61558211E-02    7746.7744
  2.6000000       0.35383873E-02   0.91998069E-02   0.23919498E-01   0.62190695E-01   0.24471708E-01    7747.7555
  2.6500000       0.44155816E-01   0.11701291       0.31008422       0.82172317       0.54496663E-01    7748.7556
  2.7000000       0.27951988E-01   0.75470367E-01   0.20376999       0.55017897       0.95491374E-01    7749.7748
  2.7500000       0.11285209E-01   0.31034324E-01   0.85344392E-01   0.23469708       0.14644642        7750.8130
  2.8000000       0.96433255E-02   0.27001311E-01   0.75603672E-01   0.21169028       0.20610711        7751.8703
  2.8500000       0.73660112E-01   0.20993132       0.59830426        1.7051671       0.27300441        7752.9466
  2.9000000       0.38933685E-01   0.11290769       0.32743229       0.94955363       0.34549108        7754.0420
  2.9500000      -0.52889054E-02  -0.15602271E-01  -0.46026699E-01  -0.13577876       0.42178228        7755.1564
  3.0000000       0.82166031E-02   0.24649809E-01   0.73949428E-01   0.22184828       0.49999945        7756.2899
  3.0500000      -0.60198773E-02  -0.18360626E-01  -0.55999909E-01  -0.17079972       0.57821664        7757.4424
  3.1000000       0.51878108E-02   0.16082213E-01   0.49854862E-01   0.15455007       0.65450787        7758.6139
  3.1500000       0.85432052E-01   0.26911096       0.84769953        2.6702535       0.72699461        7759.8046
  3.2000000       0.25011731E-01   0.80037539E-01   0.25612012       0.81958440       0.79389200        7761.0142
  3.2500000       0.35420546E-03   0.11511678E-02   0.37412952E-02   0.12159209E-01   0.85355281        7762.2430
  3.3000000       0.92636413E-02   0.30570016E-01   0.10088105       0.33290748       0.90450798        7763.4907
  3.3500000       0.81943569E-02   0.27451096E-01   0.91961170E-01   0.30806992       0.94550284        7764.7575
  3.4000000       0.29104189E-01   0.98954242E-01   0.33644442        1.1439110       0.97552795        7766.0434
  3.4500000       0.93406843E-02   0.32225361E-01   0.11117749       0.38356236       0.99384401        7767.3483
  3.5000000       0.48417492E-02   0.16946122E-01   0.59311427E-01   0.20759000        1.0000000        7768.6723
  3.5500000      -0.91759554E-02  -0.32574642E-01  -0.11563998      -0.41052192        1.0000000        7770.0153
  3.6000000       0.14802013E-01   0.53287246E-01   0.19183409       0.69060271        1.0000000        7771.3774
  3.6500000      -0.35991804E-01  -0.13137009      -0.47950081       -1.7501780        1.0000000        7772.7585
  3.7000000      -0.33905706E-01  -0.12545111      -0.46416912       -1.7174257        1.0000000        7774.1587
  3.7500000      -0.33351906E-01  -0.12506965      -0.46901118       -1.7587919        1.0000000        7775.5779
  3.8000000      -0.79109926E-01  -0.30061772       -1.1423473       -4.3409199        1.0000000        7777.0162
  3.8500000      -0.29272234E-01  -0.11269810      -0.43388769       -1.6704676        1.0000000        7778.4735
  3.9000000      -0.14425804E-02  -0.56260634E-02  -0.21941647E-01  -0.85572424E-01    1.0000000        7779.9499
  3.9500000      -0.34306864E-01  -0.13551211      -0.53527284       -2.1143277        1.0000000        7781.4453
  4.0000000      -0.21384659E-01  -0.85538636E-01  -0.34215454       -1.3686182        1.0000000        7782.9597
  4.0500000      -0.44524449E-02  -0.18032402E-01  -0.73031228E-01  -0.29577647        1.0000000        7784.4933
  4.1000000      -0.16405236E-03  -0.67261469E-03  -0.27577202E-02  -0.11306653E-01    1.0000000        7786.0458
  4.1500000       0.14093692E-01   0.58488822E-01   0.24272861        1.0073237        1.0000000        7787.6174
  4.2000000       0.27408406E-01   0.11511531       0.48348429        2.0306340        1.0000000        7789.2081
  4.2500000       0.38648247E-01   0.16425505       0.69808397        2.9668569        1.0000000        7790.8178
  4.3000000       0.29309864E-01   0.12603242       0.54193939        2.3303394        1.0000000        7792.4466
  4.3500000       0.21920152E-01   0.95352662E-01   0.41478408        1.8043108        1.0000000        7794.0944
  4.4000000       0.40955164E-01   0.18020272       0.79289197        3.4887247        1.0000000        7795.7613
  4.4500000       0.18030157E-01   0.80234199E-01   0.35704219        1.5888377        1.0000000        7797.4472
  4.5000000       0.11961604E-01   0.53827218E-01   0.24222248        1.0900012        1.0000000        7799.1522
  4.5500000       0.45021361E-03   0.20484719E-02   0.93205472E-02   0.42408490E-01    1.0000000        7800.8762
  4.6000000       0.59200464E-01   0.27232214        1.2526818        5.7623364        1.0000000        7802.6193
  4.6500000       0.35530719E-01   0.16521784       0.76826296        3.5724228        1.0000000        7804.3814
  4.7000000       0.26749231E-01   0.12572139       0.59089051        2.7771854        1.0000000        7806.1625
  4.7500000      -0.25065577E-01  -0.11906149      -0.56554208       -2.6863249        1.0000000        7807.9628
  4.8000000       0.31701653E-01   0.15216794       0.73040609        3.5059493        1.0000000        7809.7820
  4.8500000       0.57151363E-01   0.27718411        1.3443429        6.5200632        1.0000000        7811.6203
  4.9000000       0.64578676E-01   0.31643551        1.5505340        7.5976166        1.0000000        7813.4777
  4.9500000       0.38273180E-02   0.18945224E-01   0.93778859E-01   0.46420535        1.0000000        7815.3541
  5.0000000      -0.19892520E-01  -0.99462600E-01  -0.49731300       -2.4865650        1.0000000        7817.2496
  5.0500000       0.29781997E-01   0.15039908       0.75951537        3.8355526        1.0000000        7819.1641
  5.1000000      -0.31013037E-01  -0.15816649      -0.80664909       -4.1139104        1.0000000        7821.0977
  5.1500000      -0.58256637E-01  -0.30002168       -1.5451116       -7.9573250        1.0000000        7823.0503
  5.2000000      -0.54544559E-01  -0.28363171       -1.4748849       -7.6694013        1.0000000        7825.0220
  5.2500000      -0.66695127E-02  -0.35014941E-01  -0.18382844      -0.96509932        1.0000000        7827.0127
  5.3000000      -0.38600844E-01  -0.20458447       -1.0842977       -5.7467778        1.0000000        7829.0225
  5.3500000      -0.49011487E-01  -0.26221146       -1.4028313       -7.5051474        1.0000000        7831.0513
  5.4000000      -0.66263380E-01  -0.35782225       -1.9322402       -10.434097        1.0000000        7833.0991
  5.4500000      -0.66844560E-01  -0.36430285       -1.9854506       -10.820706        1.0000000        7835.1661
  5.5000000      -0.49506236E-01  -0.27228430       -1.4975636       -8.2366000        1.0000000        7837.2520
  5.5500000      -0.35063563E-01  -0.19460278       -1.0800454       -5.9942520        1.0000000        7839.3570
  5.6000000       0.29428300E-02   0.16479848E-01   0.92287148E-01   0.51680803        1.0000000        7841.4811
  5.6500000      -0.12320433E-01  -0.69610447E-01  -0.39329902       -2.2221395        1.0000000        7843.6242
  5.7000000      -0.31853148E-01  -0.18156294       -1.0349088       -5.8989801        1.0000000        7845.7864
  5.7500000      -0.64233761E-01  -0.36934413       -2.1237287       -12.211440        1.0000000        7847.9676
  5.8000000      -0.35449122E-01  -0.20560490       -1.1925084       -6.9165490        1.0000000        7850.1679
  5.8500000       0.98272784E-03   0.57489579E-02   0.33631404E-01   0.19674371        1.0000000        7852.3872
  5.9000000      -0.45057568E-02  -0.26583965E-01  -0.15684539      -0.92538783        1.0000000        7854.6255
  5.9500000      -0.13727229E-01  -0.81677011E-01  -0.48597822       -2.8915704        1.0000000        7856.8830
  6.0000000       0.15971829E-01   0.95830976E-01   0.57498586        3.4499152        1.0000000        7859.1594
  6.0500000       0.51099274E-01   0.30915061        1.8703612        11.315685        1.0000000        7861.4549
  6.1000000      -0.24361014E-02  -0.14860218E-01  -0.90647331E-01  -0.55294872        1.0000000        7863.7695
  6.1500000       0.56307858E-03   0.34629333E-02   0.21297040E-01   0.13097679        1.0000000        7866.1031
  6.2000000       0.77018719E-01   0.47751606        2.9605995        18.355717        1.0000000        7868.4558
  6.2500000       0.78638591E-01   0.49149120        3.0718200        19.198875        1.0000000        7870.8275
  6.3000000       0.50672701E-01   0.31923801        2.0111995        12.670557        1.0000000        7873.2183
  6.3500000       0.27685094E-01   0.17580035        1.1163322        7.0887096        1.0000000        7875.6281
  6.4000000       0.35368263E-01   0.22635688        1.4486840        9.2715779        1.0000000        7878.0569
  6.4500000       0.49494380E-01   0.31923875        2.0590900        13.281130        1.0000000        7880.5049
  6.5000000       0.27127274E-01   0.17632728        1.1461273        7.4498276        1.0000000        7882.9718
  6.5500000       0.28268227E-01   0.18515689        1.2127776        7.9436934        1.0000000        7885.4578
  6.6000000       0.42595322E-01   0.28112913        1.8554522        12.245985        1.0000000        7887.9629
  6.6500000       0.37939644E-01   0.25229863        1.6777859        11.157276        1.0000000        7890.4870
  6.7000000      -0.11831929E-01  -0.79273926E-01  -0.53113530       -3.5586065        1.0000000        7893.0302
  6.7500000      -0.28589263E-01  -0.19297753       -1.3025983       -8.7925386        1.0000000        7895.5924
  6.8000000      -0.70559885E-02  -0.47980722E-01  -0.32626891       -2.2186286        1.0000000        7898.1737
  6.8500000       0.31305950E-01   0.21444576        1.4689535        10.062331        1.0000000        7900.7740
  6.9000000      -0.85100346E-03  -0.58719239E-02  -0.40516275E-01  -0.27956230        1.0000000        7903.3933
  6.9500000       0.58487535E-02   0.40648837E-01   0.28250942        1.9634404        1.0000000        7906.0318
  7.0000000      -0.28827525E-01  -0.20179268       -1.4125487       -9.8878411        1.0000000        7908.6892
  7.0500000      -0.51736694E-01  -0.36474370       -2.5714431       -18.128674        1.0000000        7911.3657
  7.1000000      -0.57845501E-01  -0.41070306       -2.9159917       -20.703541        1.0000000        7914.0613
  7.1500000       0.61436097E-02   0.43926809E-01   0.31407669        2.2456483        1.0000000        7916.7759
  7.2000000       0.79790431E-02   0.57449110E-01   0.41363359        2.9781619        1.0000000        7919.5096
  7.2500000      -0.42949443E-01  -0.31138347       -2.2575301       -16.367093        1.0000000        7922.2623
  7.3000000      -0.28217501E-01  -0.20598776       -1.5037106       -10.977088        1.0000000        7925.0340
  7.3500000      -0.26937080E-01  -0.19798754       -1.4552084       -10.695782        1.0000000        7927.8249
  7.4000000      -0.19648606E-01  -0.14539969       -1.0759577       -7.9620869        1.0000000        7930.6347
  7.4500000      -0.80557350E-02  -0.60015226E-01  -0.44711343       -3.3309951        1.0000000        7933.4636
  7.5000000      -0.38905932E-02  -0.29179449E-01  -0.21884587       -1.6413440        1.0000000        7936.3116
  7.5500000       0.43327935E-02   0.32712591E-01   0.24698006        1.8646994        1.0000000        7939.1786
  7.6000000       0.23946781E-01   0.18199553        1.3831661        10.512062        1.0000000        7942.0647
  7.6500000       0.41379559E-02   0.31655362E-01   0.24216352        1.8525509        1.0000000        7944.9698
  7.7000000       0.20850221E-01   0.16054670        1.2362096        9.5188140        1.0000000        7947.8940
  7.7500000       0.21348839E-01   0.16545350        1.2822646        9.9375509        1.0000000        7950.8372
  7.8000000       0.24983164E-02   0.19486868E-01   0.15199757        1.1855810        1.0000000        7953.7994
  7.8500000       0.39169511E-01   0.30748066        2.4137232        18.947727        1.0000000        7956.7807
  7.9000000      -0.17445429E-01  -0.13781889       -1.0887692       -8.6012770        1.0000000        7959.7811
  7.9500000       0.33053076E-01   0.26277195        2.0890370        16.607844        1.0000000        7962.8005
  8.0000000      -0.86208394E-02  -0.68966715E-01  -0.55173372       -4.4138698        1.0000000        7965.8390
  8.0500000      -0.88569325E-02  -0.71298307E-01  -0.57395137       -4.6203085        1.0000000        7968.8965
  8.1000000       0.19021980E-01   0.15407804        1.2480321        10.109060        1.0000000        7971.9731
  8.1500000      -0.62214150E-02  -0.50704532E-01  -0.41324194       -3.3679218        1.0000000        7975.0687
  8.2000000      -0.35253229E-01  -0.28907648       -2.3704271       -19.437502        1.0000000        7978.1833
  8.2500000       0.77077002E-02   0.63588527E-01   0.52460534        4.3279941        1.0000000        7981.3170
  8.3000000      -0.36923923E-01  -0.30646856       -2.5436891       -21.112619        1.0000000        7984.4698
  8.3500000      -0.22289098E-01  -0.18611396       -1.5540516       -12.976331        1.0000000        7987.6416
  8.4000000      -0.13596061E-01  -0.11420691      -0.95933808       -8.0584399        1.0000000        7990.8325
  8.4500000      -0.29531343E-01  -0.24953985       -2.1086117       -17.817769        1.0000000        7994.0424
  8.5000000      -0.19538565E-01  -0.16607780       -1.4116613       -11.999121        1.0000000        7997.2713
  8.5500000      -0.43511857E-01  -0.37202638       -3.1808255       -27.196058        1.0000000        8000.5194
  8.6000000      -0.38856498E-01  -0.33416588       -2.8738266       -24.714908        1.0000000        8003.7864
  8.6500000       0.36786378E-02   0.31820217E-01   0.27524488        2.3808682        1.0000000        8007.0725
  8.7000000      -0.16102202E-01  -0.14008915       -1.2187756       -10.603348        1.0000000        8010.3777
  8.7500000      -0.21277939E-01  -0.18618197       -1.6290922       -14.254557        1.0000000        8013.7019
  8.8000000      -0.28452535E-01  -0.25038230       -2.2033643       -19.389606        1.0000000        8017.0452
  8.8500000       0.17242862E-01   0.15259933        1.3505041        11.951961        1.0000000        8020.4075
  8.9000000       0.49345394E-01   0.43917401        3.9086487        34.786973        1.0000000        8023.7888
  8.9500000      -0.77547447E-02  -0.69404965E-01  -0.62117444       -5.5595112        1.0000000        8027.1892
  9.0000000      -0.37200027E-01  -0.33480024       -3.0132022       -27.118820        1.0000000        8030.6087
  9.0500000       0.30517221E-01   0.27618085        2.4994367        22.619902        1.0000000        8034.0472
  9.1000000       0.12926417E-01   0.11763040        1.0704366        9.7409731        1.0000000        8037.5048
  9.1500000       0.29710041E-01   0.27184688        2.4873989        22.759700        1.0000000        8040.9814
  9.2000000       0.33639907E-01   0.30948714        2.8472817        26.194992        1.0000000        8044.4770
  9.2500000       0.23801664E-01   0.22016539        2.0365298        18.837901        1.0000000        8047.9918
  9.3000000       0.31388709E-01   0.29191499        2.7148095        25.247728        1.0000000        8051.5255
  9.3500000       0.31774654E-01   0.29709302        2.7778197        25.972614        1.0000000        8055.0783
  9.4000000       0.59959189E-01   0.56361638        5.2979940        49.801143        1.0000000        8058.6502
  9.4500000       0.63755338E-01   0.60248794        5.6935111        53.803680        1.0000000        8062.2411
  9.5000000       0.24371656E-01   0.23153074        2.1995420        20.895649        1.0000000        8065.8511
  9.5500000       0.12214576E-01   0.11664920        1.1139998        10.638698        1.0000000        8069.4801
  9.6000000       0.44293141E-01   0.42521415        4.0820558        39.187736        1.0000000        8073.1281
  9.6500000       0.36120282E-01   0.34856072        3.3636110        32.458846        1.0000000        8076.7952
  9.7000000       0.16453193E-01   0.15959598        1.5480810        15.016385        1.0000000        8080.4814
  9.7500000      -0.23813176E-01  -0.23217846       -2.2637400       -22.071465        1.0000000        8084.1866
  9.8000000       0.23155516E-01   0.22692405        2.2238557        21.793786        1.0000000        8087.9109
  9.8500000       0.48193714E-02   0.47470808E-01   0.46758746        4.6057365        1.0000000        8091.6542
  9.9000000      -0.62254815E-01  -0.61632267       -6.1015944       -60.405785        1.0000000        8095.4165
  9.9500000      -0.12975822E-01  -0.12910943       -1.2846388       -12.782156        1.0000000        8099.1979
  10.000000       0.37618434E-01   0.37618434        3.7618434        37.618434        1.0000000        8102.9984
  10.050000       0.13566501E-01   0.13634333        1.3702505        13.771017        1.0000000        8106.8179
  10.100000      -0.56447742E-01  -0.57012219       -5.7582341       -58.158165        1.0000000        8110.6565
  10.150000      -0.48421240E-01  -0.49147558       -4.9884772       -50.633043        1.0000000        8114.5141
  10.200000      -0.33489852E-01  -0.34159649       -3.4842842       -35.539699        1.0000000        8118.3907
  10.250000      -0.35578731E-01  -0.36468200       -3.7379905       -38.314402        1.0000000        8122.2864
  10.300000      -0.32158522E-01  -0.33123277       -3.4116976       -35.140485        1.0000000        8126.2012
  10.350000      -0.21816050E-01  -0.22579612       -2.3369898       -24.187845        1.0000000        8130.1350
  10.400000      -0.32758782E-01  -0.34069133       -3.5431899       -36.849175        1.0000000        8134.0879
  10.450000      -0.37984227E-01  -0.39693518       -4.1479726       -43.346314        1.0000000        8138.0598
  10.500000      -0.63777333E-01  -0.66966200       -7.0314510       -73.830236        1.0000000        8142.0507
  10.550000      -0.29816939E-01  -0.31456871       -3.3186998       -35.012283        1.0000000        8146.0607
  10.600000       0.35575021E-01   0.37709522        3.9972093        42.370419        1.0000000        8150.0898
  10.650000       0.33784160E-02   0.35980130E-01   0.38318839        4.0809563        1.0000000        8154.1379
  10.700000      -0.70496574E-02  -0.75431334E-01  -0.80711527       -8.6361334        1.0000000        8158.2051
  10.750000      -0.11647606E-02  -0.12521177E-01  -0.13460265       -1.4469785        1.0000000        8162.2913
  10.800000       0.38699906E-02   0.41795899E-01   0.45139571        4.8750736        1.0000000        8166.3965
  10.850000      -0.67815864E-02  -0.73580212E-01  -0.79834530       -8.6620466        1.0000000        8170.5208
  10.900000       0.19606984E-01   0.21371612        2.3295057        25.391612        1.0000000        8174.6642
  10.950000       0.48946179E-01   0.53596066        5.8687693        64.263024        1.0000000        8178.8266
  11.000000      -0.43554829E-02  -0.47910312E-01  -0.52701343       -5.7971477        1.0000000        8183.0081
  11.050000      -0.46213640E-01  -0.51066072       -5.6428010       -62.352951        1.0000000        8187.2086
  11.100000       0.16396883E-02   0.18200540E-01   0.20202599        2.2424885        1.0000000        8191.4281
  11.150000       0.26437500E-01   0.29477813        3.2867761        36.647554        1.0000000        8195.6667
  11.200000       0.87507678E-02   0.98008600E-01    1.0976963        12.294199        1.0000000        8199.9244
  11.250000       0.33788694E-01   0.38012281        4.2763816        48.109293        1.0000000        8204.2011
  11.300000      -0.25186371E-01  -0.28460599       -3.2160477       -36.341338        1.0000000        8208.4969
  11.350000       0.39875098E-01   0.45258237        5.1368098        58.302792        1.0000000        8212.8117
  11.400000       0.69254781E-02   0.78950451E-01   0.90003514        10.260401        1.0000000        8217.1455
  11.450000      -0.23260175E-01  -0.26632900       -3.0494671       -34.916398        1.0000000        8221.4984
  11.500000       0.10126066E-01   0.11644976        1.3391723        15.400481        1.0000000        8225.8704
  11.550000       0.45648523E-01   0.52724044        6.0896271        70.335193        1.0000000        8230.2614
  11.600000       0.63146500E-02   0.73249941E-01   0.84969931        9.8565120        1.0000000        8234.6715
  11.650000      -0.99085544E-02  -0.11543466       -1.3448138       -15.667080        1.0000000        8239.1006
  11.700000      -0.42549414E-01  -0.49782814       -5.8245892       -68.147694        1.0000000        8243.5487
  11.750000       0.96253116E-02   0.11309741        1.3288946        15.614511        1.0000000        8248.0159
  11.800000      -0.26132500E-01  -0.30836350       -3.6386893       -42.936534        1.0000000        8252.5022
  11.850000      -0.79311498E-02  -0.93984126E-01   -1.1137119       -13.197486        1.0000000        8257.0075
  11.900000       0.31952261E-01   0.38023190        4.5247596        53.844640        1.0000000        8261.5318
  11.950000       0.61258368E-02   0.73203749E-01   0.87478481        10.453678        1.0000000        8266.0752
  12.000000       0.38916105E-01   0.46699326        5.6039191        67.247029        1.0000000        8270.6377
  12.050000       0.84216814E-02   0.10148126        1.2228492        14.735333        1.0000000        8275.2192
  12.100000      -0.12766844E-02  -0.15447882E-01  -0.18691937       -2.2617243        1.0000000        8279.8198
  12.150000       0.42220332E-01   0.51297703        6.2326709        75.726952        1.0000000        8284.4394
  12.200000       0.34734848E-01   0.42376515        5.1699348        63.073205        1.0000000        8289.0780
  12.250000       0.85426816E-02   0.10464785        1.2819362        15.703718        1.0000000        8293.7357
  12.300000       0.26926020E-01   0.33119005        4.0736376        50.105743        1.0000000        8298.4125
  12.350000      -0.47679333E-02  -0.58883977E-01  -0.72721711       -8.9811313        1.0000000        8303.1083
  12.400000      -0.25636079E-01  -0.31788738       -3.9418035       -48.878364        1.0000000        8307.8231
  12.450000      -0.24706291E-01  -0.30759332       -3.8295369       -47.677734        1.0000000        8312.5570
  12.500000       0.10289611E-01   0.12862014        1.6077517        20.096897        1.0000000        8317.3100
  12.550000       0.17269561E-01   0.21673299        2.7199990        34.135988        1.0000000        8322.0820
  12.600000      -0.12319798E-01  -0.15522946       -1.9558912       -24.644229        1.0000000        8326.8731
  12.650000      -0.51139893E-02  -0.64691965E-01  -0.81835336       -10.352170        1.0000000        8331.6832
  12.700000       0.84348396E-02   0.10712246        1.3604553        17.277782        1.0000000        8336.5123
  12.750000       0.81252110E-03   0.10359644E-01   0.13208546        1.6840896        1.0000000        8341.3605
  12.800000       0.62063412E-02   0.79441167E-01    1.0168469        13.015641        1.0000000        8346.2278
  12.850000       0.44708830E-02   0.57450846E-01   0.73824337        9.4864273        1.0000000        8351.1141
  12.900000      -0.33709915E-02  -0.43485791E-01  -0.56096670       -7.2364704        1.0000000        8356.0194
  12.950000      -0.16051252E-01  -0.20786372       -2.6918351       -34.859265        1.0000000        8360.9438
  13.000000      -0.64293218E-01  -0.83581183       -10.865554       -141.25220        1.0000000        8365.8873
  13.050000      -0.51984631E-01  -0.67839944       -8.8531126       -115.53312        1.0000000        8370.8498
  13.100000       0.11243554E-01   0.14729056        1.9295063        25.276532        1.0000000        8375.8314
  13.150000      -0.12320273E-01  -0.16201159       -2.1304524       -28.015449        1.0000000        8380.8320
  13.200000      -0.35569358E-01  -0.46951553       -6.1976050       -81.808385        1.0000000        8385.8516
  13.250000      -0.10033885E-01  -0.13294897       -1.7615739       -23.340854        1.0000000        8390.8903
  13.300000      -0.14242040E-02  -0.18941913E-01  -0.25192744       -3.3506349        1.0000000        8395.9481
  13.350000      -0.22204340E-01  -0.29642794       -3.9573130       -52.830128        1.0000000        8401.0249
  13.400000      -0.18440035E-01  -0.24709646       -3.3110926       -44.368641        1.0000000        8406.1207
  13.450000       0.22746168E-01   0.30593595        4.1148386        55.344579        1.0000000        8411.2356
  13.500000       0.30267929E-01   0.40861704        5.5163301        74.470456        1.0000000        8416.3696
  13.550000      -0.70937429E-02  -0.96120216E-01   -1.3024289       -17.647912        1.0000000        8421.5226
  13.600000      -0.40499308E-01  -0.55079059       -7.4907520       -101.87423        1.0000000        8426.6946
  13.650000      -0.34791251E-01  -0.47490058       -6.4823930       -88.484664        1.0000000        8431.8857
  13.700000       0.14553327E-04   0.19938057E-03   0.27315139E-02   0.37421740E-01    1.0000000        8437.0959
  13.750000       0.15276612E-01   0.21005342        2.8882345        39.713224        1.0000000        8442.3251
  13.800000      -0.17760070E-01  -0.24508897       -3.3822278       -46.674744        1.0000000        8447.5734
  13.850000       0.70824051E-02   0.98091311E-01    1.3585647        18.816121        1.0000000        8452.8407
  13.900000       0.28447044E-01   0.39541391        5.4962534        76.397923        1.0000000        8458.1270
  13.950000       0.19533052E-01   0.27248608        3.8011808        53.026472        1.0000000        8463.4324
  14.000000       0.44540524E-02   0.62356734E-01   0.87299427        12.221920        1.0000000        8468.7569
  14.050000       0.48159527E-01   0.67664135        9.5068110        133.57069        1.0000000        8474.1004
  14.100000       0.32499687E-01   0.45824559        6.4612629        91.103806        1.0000000        8479.4629
  14.150000       0.79604391E-02   0.11264021        1.5938590        22.553105        1.0000000        8484.8445
  14.200000       0.35868939E-01   0.50933893        7.2326128        102.70310        1.0000000        8490.2452
  14.250000       0.18532783E-01   0.26409216        3.7633133        53.627215        1.0000000        8495.6649
  14.300000      -0.11256502E-01  -0.16096799       -2.3018422       -32.916343        1.0000000        8501.1036
  14.350000      -0.77776623E-02  -0.11160945       -1.6015957       -22.982898        1.0000000        8506.5614
  14.400000       0.12693470E-01   0.18278597        2.6321179        37.902498        1.0000000        8512.0383
  14.450000       0.26817286E-01   0.38750978        5.5995163        80.913011        1.0000000        8517.5342
  14.500000      -0.20116462E-01  -0.29168870       -4.2294862       -61.327550        1.0000000        8523.0491
  14.550000      -0.46170022E-01  -0.67177382       -9.7743091       -142.21620        1.0000000        8528.5831
  14.600000       0.18778464E-01   0.27416557        4.0028174        58.441134        1.0000000        8534.1362
  14.650000       0.50656091E-01   0.74211173        10.871937        159.27387        1.0000000        8539.7083
  14.700000       0.28897089E-01   0.42478720        6.2443719        91.792267        1.0000000        8545.2994
  14.750000      -0.29944708E-01  -0.44168444       -6.5148454       -96.093970        1.0000000        8550.9097
  14.800000       0.25258147E-02   0.37382057E-01   0.55325445        8.1881658        1.0000000        8556.5389
  14.850000       0.40638626E-01   0.60348360        8.9617315        133.08171        1.0000000        8562.1872
  14.900000      -0.25875052E-01  -0.38553827       -5.7445202       -85.593352        1.0000000        8567.8546
  14.950000      -0.18517991E-01  -0.27684397       -4.1388173       -61.875319        1.0000000        8573.5410
  15.000000       0.19565013E-01   0.29347519        4.4021279        66.031919        1.0000000        8579.2464
  15.050000      -0.51853109E-02  -0.78038929E-01   -1.1744859       -17.676012        1.0000000        8584.9709
  15.100000      -0.30556866E-01  -0.46140868       -6.9672711       -105.20579        1.0000000        8590.7145
  15.150000      -0.23679046E-01  -0.35873755       -5.4348739       -82.338340        1.0000000        8596.4771
  15.200000      -0.14764581E-01  -0.22442163       -3.4112088       -51.850373        1.0000000        8602.2587
  15.250000       0.39652785E-02   0.60470496E-01   0.92217507        14.063170        1.0000000        8608.0594
  15.300000       0.53088696E-02   0.81225704E-01    1.2427533        19.014125        1.0000000        8613.8792
  15.350000      -0.23421782E-03  -0.35952435E-02  -0.55186988E-01  -0.84712027        1.0000000        8619.7180
  15.400000      -0.16114084E-03  -0.24815690E-02  -0.38216162E-01  -0.58852890        1.0000000        8625.5758
  15.450000      -0.10589366E-01  -0.16360571       -2.5277082       -39.053092       0.99501168        8631.4527
  15.500000      -0.55171418E-02  -0.85515698E-01   -1.3254933       -20.545146       0.97789621        8637.3487
  15.550000       0.59920102E-02   0.93175759E-01    1.4488831        22.530131       0.94901337        8643.2637
  15.600000      -0.11387735E-01  -0.17764866       -2.7713191       -43.232578       0.90907435        8649.1977
  15.650000      -0.38787215E-01  -0.60701992       -9.4998618       -148.67284       0.85906257        8655.1508
  15.700000      -0.47138322E-01  -0.74007166       -11.619125       -182.42026       0.80020949        8661.1230
  15.750000      -0.15597738E-01  -0.24566437       -3.8692139       -60.940119       0.73396427        8667.1142
  15.800000       0.77448305E-02   0.12236832        1.9334195        30.548028       0.66195808        8673.1244
  15.850000      -0.40232016E-01  -0.63767745       -10.107188       -160.19892       0.58596395        8679.1537
  15.900000       0.15289271E-01   0.24309940        3.8652805        61.457960       0.50785310        8685.2021
  15.950000       0.15733304E-01   0.25094620        4.0025918        63.841340       0.42954889        8691.2695
  16.000000      -0.51889473E-02  -0.83023157E-01   -1.3283705       -21.253928       0.35297941        8697.3559
  16.050000      -0.86254353E-02  -0.13843824       -2.2219337       -35.662036       0.28003006        8703.4614
  16.100000      -0.18128574E-02  -0.29187004E-01  -0.46991076       -7.5655633       0.21249710        8709.5860
  16.150000       0.30723398E-01   0.49618288        8.0133535        129.41566       0.15204340        8715.7296
  16.200000       0.41307866E-01   0.66918743        10.840836        175.62155       0.10015754        8721.8922
  16.250000      -0.13261857E-01  -0.21550517       -3.5019591       -56.906835       0.58117105E-01    8728.0739
  16.300000      -0.27507449E-01  -0.44837142       -7.3084541       -119.12780       0.26957283E-01    8734.2747
  16.350000       0.49097382E-02   0.80274219E-01    1.3124835        21.459105       0.74453265E-02    8740.4945
  16.400000       0.28229220E-01   0.46295921        7.5925310        124.51751       0.61683673E-04    8746.7333
  16.450000       0.17484725E-02   0.28762373E-01   0.47314104        7.7831701        0.0000000        8752.9912
  16.500000      -0.26017028E-03  -0.42928095E-02  -0.70831358E-01   -1.1687174        0.0000000        8759.2682
  16.550000       0.37298390E-01   0.61728835        10.216122        169.07682        0.0000000        8765.5642
  16.600000       0.35872942E-01   0.59549083        9.8851478        164.09345        0.0000000        8771.8792
  16.650000       0.34222582E-01   0.56980600        9.4872698        157.96304        0.0000000        8778.2133
  16.700000       0.30219605E-03   0.50466740E-02   0.84279456E-01    1.4074669        0.0000000        8784.5664
  16.750000       0.32810299E-02   0.54957251E-01   0.92053396        15.418944        0.0000000        8790.9386
  16.800000      -0.13117369E-02  -0.22037181E-01  -0.37022463       -6.2197738        0.0000000        8797.3299
  16.850000       0.26559231E-01   0.44752304        7.5407633        127.06186        0.0000000        8803.7402
  16.900000       0.82810079E-02   0.13994903        2.3651387        39.970843        0.0000000        8810.1695
  16.950000      -0.27546260E-01  -0.46690911       -7.9141094       -134.14415        0.0000000        8816.6179
  17.000000      -0.38208625E-02  -0.64954663E-01   -1.1042293       -18.771898        0.0000000        8823.0854
  17.050000      -0.26574775E-01  -0.45309992       -7.7253536       -131.71728        0.0000000        8829.5719
  17.100000      -0.89194496E-02  -0.15252259       -2.6081363       -44.599130        0.0000000        8836.0774
  17.150000       0.26930344E-01   0.46185541        7.9208202        135.84207        0.0000000        8842.6020
  17.200000      -0.22796273E-01  -0.39209590       -6.7440495       -115.99765        0.0000000        8849.1457
  17.250000       0.53162197E-02   0.91704790E-01    1.5819076        27.287907        0.0000000        8855.7084
  17.300000       0.38519297E-02   0.66638384E-01    1.1528440        19.944202        0.0000000        8862.2901
  17.350000      -0.23856385E-01  -0.41390827       -7.1813086       -124.59570        0.0000000        8868.8909
  17.400000      -0.92650348E-02  -0.16121161       -2.8050819       -48.808426        0.0000000        8875.5108
  17.450000      -0.28655538E-02  -0.50003914E-01  -0.87256830       -15.226317        0.0000000        8882.1497
  17.500000       0.25963679E-01   0.45436438        7.9513767        139.14909        0.0000000        8888.8076
  17.550000      -0.15009842E-01  -0.26342273       -4.6230689       -81.134859        0.0000000        8895.4846
  17.600000      -0.46970945E-01  -0.82668863       -14.549720       -256.07507        0.0000000        8902.1807
  17.650000      -0.34151729E-01  -0.60277802       -10.639032       -187.77892        0.0000000        8908.8958
  17.700000      -0.18135547E-01  -0.32099918       -5.6816855       -100.56583        0.0000000        8915.6299
  17.750000       0.25251885E-01   0.44822095        7.9559219        141.21761        0.0000000        8922.3831
  17.800000       0.22638089E-01   0.40295798        7.1726520        127.67321        0.0000000        8929.1553
  17.850000      -0.26592078E-01  -0.47466860       -8.4728345       -151.24010        0.0000000        8935.9466
